# www.neaspec.com
# Scan:	 	Fourier Scan
# Project:	 	nanoFTIR-QualityControl
# Description:	 	NeaSpec-Slow-Arrowhead-Clean-REV2-45avg
# Date:	 	05/19/2024 16:59:10
# Scanner Center Position (X, Y):	[µm]	46.77	49.79	 
# Rotation:	[°]	0	 	 
# Scan Area (X, Y, Z):	[µm]	1.000	0.000	0.000
# Pixel Area (X, Y, Z):	[px]	2	1	2
# Interferometer Center/Distance:	[µm]	470.000	490.000	 
# Averaging:	 	45	 	 
# Integration time:	[ms]	20	 	 
# Wavenumber Scaling:	 	1.003656	 	 
# Laser Source:	 	
# Detector:	 	R
# Target Wavelength:	[µm]		 	 
# Demodulation Mode:	 	Fourier
# Tip Frequency:	[Hz]	68,263.500	 	 
# Tip Amplitude:	[mV]	339.702	 	 
# Tapping Amplitude:	[nm]	76.233	 	 
# Modulation Frequency:	[Hz]	0.000	 	 
# Modulation Amplitude:	[mV]	0.000	 	 
# Modulation Offset:	[mV]	0.000	 	 
# Setpoint:	[%]	80.49	 	 
# Regulator (P, I, D):	 	3.767854	6.228756	1.000000
# Tip Potential:	[mV]	0.000	 	 
# M1A Scaling:	[nm/V]	1.520	 	 
# M1A Cantilever Factor:	 	2.066	 	 
# Q-Factor:	 	221.1	 	 
# Version:	 	2.1.11508.0
Row	Column	Omega	Wavenumber	O0A	O0P	O1A	O1P	O2A	O2P	O3A	O3P	O4A	O4P	O5A	O5P	
0	0	0	0	37.119324	3.1415927	1.738142	-3.1415913	0.1600194	8.742275E-08	0.12289047	-2.6534444E-10	0.03433025	-3.1415925	0.044003725	-3.1415925	
0	0	1	2.560346956632653	35.434025	2.681263	4.94985	0.9037826	0.43971792	-2.300659	0.16032808	-0.58963114	0.053768463	1.7078916	0.08377697	1.4515767	
0	0	2	5.120693913265306	32.58373	2.3122003	8.926398	-0.2935503	0.8658856	2.7100954	0.26857227	-1.3153769	0.09340307	0.8722349	0.14734396	0.52470887	
0	0	3	7.681040869897961	33.03119	2.0073247	12.101863	-1.3972439	1.3369256	1.5798267	0.43721926	-2.1214292	0.15267329	0.18834925	0.21037804	-0.2551048	
0	1	0	0	37.119324	3.1415927	1.738142	-3.1415913	0.1600194	8.742275E-08	0.12289047	-2.6534444E-10	0.03433025	-3.1415925	0.044003725	-3.1415925	
0	1	1	2.560346956632653	35.434025	2.681263	4.94985	0.9037826	0.43971792	-2.300659	0.16032808	-0.58963114	0.053768463	1.7078916	0.08377697	1.4515767	
0	1	2	5.120693913265306	32.58373	2.3122003	8.926398	-0.2935503	0.8658856	2.7100954	0.26857227	-1.3153769	0.09340307	0.8722349	0.14734396	0.52470887	
0	1	3	7.681040869897961	33.03119	2.0073247	12.101863	-1.3972439	1.3369256	1.5798267	0.43721926	-2.1214292	0.15267329	0.18834925	0.21037804	-0.2551048	
